#class:dielectric
3.31 2.4625
3.34 2.4635
3.36 2.4648
3.37 2.4661
3.39 2.4675
3.41 2.4685
3.44 2.4689
3.48 2.4690
3.50 2.4685
3.52 2.4677
3.56 2.4663
3.59 2.4650
3.63 2.4627
3.64 2.4626
3.69 2.4621
3.73 2.4610
3.75 2.4604
3.76 2.4601
3.77 2.4598
3.78 2.4596
3.80 2.4590
3.82 2.4585
3.85 2.4577
3.86 2.4556
3.87 2.4553
3.89 2.4546
3.94 2.4519
3.95 2.4514
3.97 2.4496
4.00 2.4491
4.01 2.4490
4.04 2.4474
4.06 2.4451
4.12 2.4445
4.13 2.4444
4.17 2.4442
4.18 2.4441
4.22 2.4412
4.25 2.4392
4.27 2.4379
4.28 2.4371
4.30 2.4355
4.32 2.4340
4.34 2.4324
4.35 2.4318
4.39 2.4295
4.41 2.4283
4.44 2.4265
4.48 2.4240
4.49 2.4234
4.52 2.4215
4.54 2.4204
4.56 2.4192
4.60 2.4155
4.64 2.4131
4.70 2.4114
4.71 2.4111
4.72 2.4108
4.76 2.4095
4.79 2.4090
4.82 2.4086
4.83 2.4086
4.88 2.4084
4.89 2.4084
4.93 2.4087
4.95 2.4089
4.96 2.4089
5.03 2.4092
5.07 2.4096
5.13 2.4101
5.22 2.4113
5.26 2.4130
5.28 2.4138
5.30 2.4155
5.34 2.4164
5.40 2.4174
5.42 2.4177
5.46 2.4188
5.53 2.4193
5.55 2.4194
5.63 2.4198
5.67 2.4207
5.70 2.4216
5.71 2.4218
5.74 2.4222
5.82 2.4225
5.87 2.4223
5.88 2.4222
5.94 2.4216
6.05 2.4213
6.06 2.4213
6.18 2.4212
6.25 2.4200
6.27 2.4197
6.30 2.4174
6.36 2.4152
6.45 2.4139
6.48 2.4135
6.59 2.4111
6.67 2.4086
6.70 2.4068
6.78 2.4063
6.89 2.4056
6.90 2.4056
7.08 2.4053
7.14 2.4005
7.35 2.4038
7.40 2.4032
7.51 2.4020
7.69 2.4005
7.70 2.4004
7.90 2.3991
8.00 2.3971
8.03 2.3965
8.13 2.3942
8.23 2.3922
8.31 2.3908
8.33 2.3907
8.42 2.3900
8.57 2.3891
8.70 2.3887
8.79 2.3884
