#class:dielectric
0.3300 1.737
0.3400 1.736
0.3500 1.734
0.3600 1.733
0.3700 1.733
0.3800 1.733
0.3900 1.733
0.4000 1.732
0.4100 1.731
0.4200 1.730
0.4300 1.730
0.4400 1.730
0.4500 1.730
0.4600 1.730
0.4700 1.730
0.4800 1.729
0.4900 1.729
0.5000 1.729
0.5100 1.729
0.5200 1.729
0.5300 1.729
0.5400 1.729
0.5500 1.729
0.5600 1.728
0.5700 1.728
0.5800 1.728
0.5900 1.728
0.6000 1.728
0.6100 1.728
0.6200 1.728
0.6300 1.728
0.6400 1.727
0.6500 1.727
0.6600 1.727
0.6700 1.727
0.6800 1.727
0.6900 1.727
0.7000 1.727
0.7100 1.727
0.7200 1.727
0.7300 1.727
0.7400 1.727
0.7500 1.727
0.7600 1.727
0.7700 1.727
0.7800 1.727
0.7900 1.727
0.8000 1.727
0.8100 1.726
0.8200 1.726
0.8300 1.726
0.8400 1.726
0.8500 1.726
0.8600 1.726
0.8700 1.726
0.8800 1.726
0.8900 1.726
